'sample interval','SpO2','hr'
'1 sec','%','bpm'
0,97.00000000,82.00076296
1,96.00000000,81.00053407
2,96.00000000,82.00076296
3,96.00000000,81.00053407
4,96.00000000,82.00076296
5,96.00000000,82.00076296
6,96.00000000,83.00009156
7,96.00000000,83.00009156
8,96.00000000,81.00053407
9,96.00000000,79.00007630
10,96.00000000,75.00006104
11,96.00000000,74.00073244
12,96.00000000,74.00073244
13,96.00000000,74.00073244
14,96.00000000,75.00006104
15,96.00000000,75.00006104
16,96.00000000,76.00028993
17,96.00000000,75.00006104
18,96.00000000,76.00028993
19,96.00000000,75.00006104
20,96.00000000,75.00006104
21,96.00000000,76.00028993
22,96.00000000,76.00028993
23,96.00000000,77.00051881
24,96.00000000,77.00051881
25,96.00000000,77.00051881
26,96.00000000,77.00051881
27,96.00000000,77.00051881
28,96.00000000,77.00051881
29,96.00000000,77.00051881
30,96.00000000,81.00053407
31,96.00000000,81.00053407
32,96.00000000,82.00076296
33,96.00000000,82.00076296
34,96.00000000,80.00030519
35,96.00000000,79.00007630
36,96.00000000,78.00074770
37,96.00000000,77.00051881
38,96.00000000,75.00006104
39,96.00000000,74.00073244
40,96.00000000,74.00073244
41,96.00000000,74.00073244
42,96.00000000,74.00073244
43,96.00000000,74.00073244
44,96.00000000,74.00073244
45,96.00000000,75.00006104
46,96.00000000,75.00006104
47,96.00000000,75.00006104
48,96.00000000,76.00028993
49,96.00000000,76.00028993
50,95.00000000,77.00051881
51,95.00000000,77.00051881
52,95.00000000,78.00074770
53,95.00000000,78.00074770
54,96.00000000,79.00007630
55,95.00000000,80.00030519
56,95.00000000,80.00030519
57,95.00000000,80.00030519
58,95.00000000,80.00030519
59,95.00000000,80.00030519
60,95.00000000,79.00007630
61,95.00000000,79.00007630
62,95.00000000,78.00074770
63,95.00000000,77.00051881
64,95.00000000,77.00051881
65,95.00000000,76.00028993
66,95.00000000,76.00028993
67,95.00000000,75.00006104
68,95.00000000,75.00006104
69,96.00000000,75.00006104
70,96.00000000,75.00006104
71,96.00000000,75.00006104
72,96.00000000,75.00006104
73,96.00000000,78.00074770
74,96.00000000,78.00074770
75,96.00000000,80.00030519
76,96.00000000,80.00030519
77,96.00000000,77.00051881
78,96.00000000,76.00028993
79,96.00000000,75.00006104
80,96.00000000,74.00073244
81,96.00000000,74.00073244
82,96.00000000,73.00050356
83,96.00000000,73.00050356
84,96.00000000,73.00050356
85,96.00000000,73.00050356
86,96.00000000,74.00073244
87,96.00000000,74.00073244
88,96.00000000,75.00006104
89,96.00000000,76.00028993
90,96.00000000,76.00028993
91,96.00000000,76.00028993
92,96.00000000,77.00051881
93,96.00000000,78.00074770
94,96.00000000,79.00007630
95,96.00000000,80.00030519
96,96.00000000,80.00030519
97,96.00000000,81.00053407
98,96.00000000,82.00076296
99,96.00000000,82.00076296
100,96.00000000,82.00076296
101,96.00000000,82.00076296
102,96.00000000,82.00076296
103,96.00000000,82.00076296
104,96.00000000,83.00009156
105,96.00000000,86.00077822
106,96.00000000,86.00077822
107,96.00000000,86.00077822
108,96.00000000,87.00010681
109,96.00000000,87.00010681
110,96.00000000,85.00054933
111,96.00000000,84.00032044
112,96.00000000,84.00032044
113,96.00000000,82.00076296
114,96.00000000,81.00053407
115,96.00000000,80.00030519
116,96.00000000,80.00030519
117,96.00000000,80.00030519
118,96.00000000,80.00030519
119,96.00000000,81.00053407
120,96.00000000,82.00076296
121,96.00000000,84.00032044
122,96.00000000,84.00032044
123,96.00000000,84.00032044
124,96.00000000,84.00032044
125,96.00000000,84.00032044
126,96.00000000,84.00032044
127,96.00000000,84.00032044
128,96.00000000,84.00032044
129,96.00000000,83.00009156
130,96.00000000,83.00009156
131,96.00000000,83.00009156
132,96.00000000,81.00053407
133,96.00000000,81.00053407
134,96.00000000,81.00053407
135,96.00000000,81.00053407
136,96.00000000,81.00053407
137,96.00000000,81.00053407
138,96.00000000,80.00030519
139,96.00000000,79.00007630
140,96.00000000,79.00007630
141,96.00000000,78.00074770
142,96.00000000,78.00074770
143,96.00000000,78.00074770
144,96.00000000,78.00074770
145,96.00000000,78.00074770
146,96.00000000,77.00051881
147,96.00000000,77.00051881
148,96.00000000,77.00051881
149,96.00000000,76.00028993
150,96.00000000,76.00028993
151,96.00000000,76.00028993
152,96.00000000,75.00006104
153,96.00000000,75.00006104
154,96.00000000,75.00006104
155,96.00000000,75.00006104
156,96.00000000,76.00028993
157,96.00000000,76.00028993
158,97.00000000,77.00051881
159,97.00000000,77.00051881
160,97.00000000,77.00051881
161,96.00000000,77.00051881
162,97.00000000,78.00074770
163,96.00000000,78.00074770
164,96.00000000,78.00074770
165,96.00000000,78.00074770
166,96.00000000,79.00007630
167,96.00000000,79.00007630
168,96.00000000,79.00007630
169,96.00000000,79.00007630
170,96.00000000,80.00030519
171,96.00000000,81.00053407
172,96.00000000,81.00053407
173,96.00000000,82.00076296
174,96.00000000,82.00076296
175,96.00000000,81.00053407
176,96.00000000,81.00053407
177,96.00000000,80.00030519
178,96.00000000,80.00030519
179,96.00000000,80.00030519
180,96.00000000,79.00007630
181,96.00000000,79.00007630
182,96.00000000,81.00053407
183,96.00000000,81.00053407
184,96.00000000,81.00053407
185,96.00000000,81.00053407
186,96.00000000,80.00030519
187,96.00000000,80.00030519
188,96.00000000,79.00007630
189,96.00000000,80.00030519
190,96.00000000,79.00007630
191,96.00000000,79.00007630
192,96.00000000,80.00030519
193,96.00000000,79.00007630
194,96.00000000,80.00030519
195,96.00000000,81.00053407
196,96.00000000,81.00053407
197,96.00000000,82.00076296
198,96.00000000,82.00076296
199,96.00000000,82.00076296
200,96.00000000,82.00076296
201,96.00000000,83.00009156
202,96.00000000,83.00009156
203,96.00000000,84.00032044
204,97.00000000,84.00032044
205,97.00000000,84.00032044
206,97.00000000,84.00032044
207,97.00000000,83.00009156
208,97.00000000,84.00032044
209,97.00000000,83.00009156
210,97.00000000,83.00009156
211,96.00000000,83.00009156
212,97.00000000,83.00009156
213,96.00000000,83.00009156
214,97.00000000,83.00009156
215,97.00000000,83.00009156
216,97.00000000,84.00032044
217,97.00000000,84.00032044
218,96.00000000,84.00032044
219,96.00000000,84.00032044
220,96.00000000,84.00032044
221,96.00000000,84.00032044
222,96.00000000,84.00032044
223,96.00000000,85.00054933
224,96.00000000,86.00077822
225,96.00000000,85.00054933
226,96.00000000,84.00032044
227,96.00000000,84.00032044
228,96.00000000,83.00009156
229,96.00000000,83.00009156
230,96.00000000,83.00009156
231,96.00000000,83.00009156
232,96.00000000,84.00032044
233,96.00000000,84.00032044
234,96.00000000,84.00032044
235,96.00000000,85.00054933
236,96.00000000,85.00054933
237,96.00000000,85.00054933
238,96.00000000,85.00054933
239,96.00000000,85.00054933
240,96.00000000,85.00054933
241,96.00000000,86.00077822
242,96.00000000,86.00077822
243,96.00000000,86.00077822
244,96.00000000,86.00077822
245,96.00000000,85.00054933
246,96.00000000,86.00077822
247,96.00000000,86.00077822
248,96.00000000,86.00077822
249,96.00000000,86.00077822
250,96.00000000,87.00010681
251,96.00000000,87.00010681
252,96.00000000,87.00010681
253,96.00000000,88.00033570
254,96.00000000,88.00033570
255,97.00000000,87.00010681
256,97.00000000,87.00010681
257,96.00000000,88.00033570
258,97.00000000,89.00056459
259,97.00000000,89.00056459
260,96.00000000,89.00056459
261,96.00000000,89.00056459
262,96.00000000,88.00033570
263,96.00000000,88.00033570
264,96.00000000,88.00033570
265,97.00000000,87.00010681
266,97.00000000,87.00010681
267,97.00000000,87.00010681
268,97.00000000,87.00010681
269,97.00000000,87.00010681
270,97.00000000,87.00010681
271,97.00000000,87.00010681
272,97.00000000,87.00010681
273,97.00000000,87.00010681
274,97.00000000,87.00010681
275,97.00000000,87.00010681
276,97.00000000,89.00056459
277,97.00000000,90.00079348
278,97.00000000,88.00033570
279,97.00000000,87.00010681
280,96.00000000,86.00077822
281,96.00000000,86.00077822
282,96.00000000,84.00032044
283,96.00000000,84.00032044
284,96.00000000,83.00009156
285,96.00000000,82.00076296
286,96.00000000,81.00053407
287,96.00000000,81.00053407
288,97.00000000,80.00030519
289,97.00000000,79.00007630
290,97.00000000,78.00074770
291,97.00000000,78.00074770
292,97.00000000,78.00074770
293,97.00000000,78.00074770
294,97.00000000,78.00074770
295,97.00000000,79.00007630
296,97.00000000,80.00030519
297,97.00000000,80.00030519
298,97.00000000,81.00053407
299,97.00000000,83.00009156
300,97.00000000,84.00032044
301,96.00000000,79.00007630
302,95.00000000,79.00007630
303,96.00000000,79.00007630
304,96.00000000,80.00030519
305,96.00000000,80.00030519
306,96.00000000,80.00030519
307,96.00000000,82.00076296
308,96.00000000,82.00076296
309,96.00000000,84.00032044
310,96.00000000,84.00032044
311,96.00000000,84.00032044
312,96.00000000,85.00054933
313,96.00000000,88.00033570
314,96.00000000,91.00012207
315,96.00000000,91.00012207
316,97.00000000,95.99946593
317,97.00000000,99.99948119
318,97.00000000,102.99926756
319,98.00000000,102.99926756
320,98.00000000,102.99926756
321,98.00000000,102.99926756
322,98.00000000,101.99993896
323,98.00000000,99.99948119
324,98.00000000,99.99948119
325,98.00000000,99.99948119
326,98.00000000,99.99948119
327,98.00000000,100.99971007
328,98.00000000,100.99971007
329,98.00000000,100.99971007
330,98.00000000,100.99971007
331,98.00000000,101.99993896
332,98.00000000,101.99993896
333,98.00000000,101.99993896
334,98.00000000,98.99925230
335,98.00000000,94.00080874
336,98.00000000,93.00057985
337,98.00000000,91.00012207
338,98.00000000,90.00079348
339,98.00000000,89.00056459
340,98.00000000,89.00056459
341,97.00000000,89.00056459
342,97.00000000,90.00079348
343,97.00000000,90.00079348
344,97.00000000,91.00012207
345,97.00000000,91.00012207
346,97.00000000,90.00079348
347,97.00000000,90.00079348
348,97.00000000,90.00079348
349,97.00000000,91.00012207
350,97.00000000,91.00012207
351,97.00000000,91.00012207
352,97.00000000,91.00012207
353,97.00000000,91.00012207
354,97.00000000,90.00079348
355,97.00000000,90.00079348
356,97.00000000,91.00012207
357,97.00000000,91.00012207
358,97.00000000,92.00035096
359,97.00000000,92.00035096
360,97.00000000,93.00057985
361,96.00000000,93.00057985
362,96.00000000,93.00057985
363,96.00000000,93.00057985
364,97.00000000,93.00057985
365,97.00000000,93.00057985
366,96.00000000,93.00057985
367,96.00000000,93.00057985
368,96.00000000,93.00057985
369,96.00000000,93.00057985
370,96.00000000,93.00057985
371,96.00000000,93.00057985
372,96.00000000,93.00057985
373,96.00000000,93.00057985
374,96.00000000,93.00057985
375,96.00000000,93.00057985
376,96.00000000,93.00057985
377,96.00000000,93.00057985
378,96.00000000,93.00057985
379,96.00000000,93.00057985
380,96.00000000,93.00057985
381,96.00000000,93.00057985
382,96.00000000,93.00057985
383,97.00000000,94.00080874
384,97.00000000,95.00013733
385,97.00000000,95.00013733
386,98.00000000,95.99946593
387,98.00000000,95.99946593
388,98.00000000,96.99969482
389,98.00000000,96.99969482
390,98.00000000,96.99969482
391,98.00000000,96.99969482
392,98.00000000,95.99946593
393,98.00000000,95.00013733
394,98.00000000,95.00013733
395,98.00000000,95.00013733
396,98.00000000,95.00013733
397,98.00000000,95.00013733
398,98.00000000,95.00013733
399,98.00000000,95.00013733
400,98.00000000,95.00013733
401,98.00000000,95.00013733
402,98.00000000,95.00013733
403,98.00000000,95.00013733
404,98.00000000,95.00013733
405,98.00000000,95.00013733
406,97.00000000,95.00013733
407,96.00000000,95.00013733
408,96.00000000,95.00013733
409,96.00000000,95.00013733
410,96.00000000,95.00013733
411,96.00000000,95.00013733
412,96.00000000,95.00013733
413,96.00000000,95.00013733
414,96.00000000,95.00013733
415,96.00000000,95.00013733
416,96.00000000,95.00013733
417,96.00000000,95.00013733
418,96.00000000,94.00080874
419,97.00000000,94.00080874
420,97.00000000,94.00080874
421,97.00000000,94.00080874
422,96.00000000,93.00057985
423,96.00000000,93.00057985
424,96.00000000,93.00057985
425,96.00000000,92.00035096
426,96.00000000,92.00035096
427,97.00000000,92.00035096
428,97.00000000,92.00035096
429,97.00000000,92.00035096
430,97.00000000,92.00035096
431,97.00000000,92.00035096
432,96.00000000,92.00035096
433,96.00000000,92.00035096
434,96.00000000,92.00035096
435,96.00000000,92.00035096
436,96.00000000,92.00035096
437,96.00000000,91.00012207
438,96.00000000,91.00012207
439,96.00000000,91.00012207
440,96.00000000,91.00012207
441,96.00000000,91.00012207
442,96.00000000,90.00079348
443,97.00000000,90.00079348
444,97.00000000,90.00079348
445,97.00000000,90.00079348
446,97.00000000,90.00079348
447,97.00000000,90.00079348
448,97.00000000,90.00079348
449,96.00000000,90.00079348
450,96.00000000,91.00012207
451,96.00000000,92.00035096
452,96.00000000,93.00057985
453,96.00000000,93.00057985
454,96.00000000,93.00057985
455,96.00000000,93.00057985
456,96.00000000,94.00080874
457,96.00000000,94.00080874
458,96.00000000,94.00080874
459,96.00000000,94.00080874
460,96.00000000,94.00080874
461,96.00000000,94.00080874
462,96.00000000,94.00080874
463,96.00000000,94.00080874
464,96.00000000,94.00080874
465,96.00000000,95.00013733
466,96.00000000,95.00013733
467,96.00000000,94.00080874
468,96.00000000,94.00080874
469,96.00000000,94.00080874
470,96.00000000,94.00080874
471,96.00000000,94.00080874
472,96.00000000,94.00080874
473,96.00000000,95.00013733
474,96.00000000,95.00013733
475,96.00000000,95.99946593
476,96.00000000,95.99946593
477,96.00000000,95.99946593
478,96.00000000,95.99946593
479,96.00000000,95.99946593
480,97.00000000,95.99946593
481,97.00000000,95.99946593
482,97.00000000,95.99946593
483,96.00000000,95.99946593
484,96.00000000,95.99946593
485,96.00000000,95.99946593
486,96.00000000,95.99946593
487,96.00000000,95.99946593
488,96.00000000,95.99946593
489,96.00000000,95.99946593
490,96.00000000,95.99946593
491,96.00000000,95.99946593
492,95.00000000,95.99946593
493,95.00000000,95.99946593
494,95.00000000,95.99946593
495,95.00000000,95.99946593
496,95.00000000,95.99946593
497,95.00000000,95.99946593
498,95.00000000,95.00013733
499,95.00000000,95.00013733
500,95.00000000,94.00080874
501,95.00000000,94.00080874
502,95.00000000,93.00057985
503,95.00000000,93.00057985
504,95.00000000,94.00080874
505,95.00000000,94.00080874
506,95.00000000,94.00080874
507,95.00000000,94.00080874
508,95.00000000,94.00080874
509,95.00000000,94.00080874
510,95.00000000,94.00080874
511,95.00000000,95.00013733
512,95.00000000,95.00013733
513,95.00000000,95.99946593
514,95.00000000,95.99946593
515,95.00000000,95.99946593
516,95.00000000,95.99946593
517,95.00000000,95.99946593
518,95.00000000,95.99946593
519,95.00000000,95.99946593
520,95.00000000,98.99925230
521,95.00000000,98.99925230
522,95.00000000,98.99925230
523,95.00000000,98.99925230
524,95.00000000,99.99948119
525,95.00000000,99.99948119
526,95.00000000,102.99926756
527,95.00000000,102.99926756
528,95.00000000,103.99949644
529,95.00000000,104.99972533
530,95.00000000,104.99972533
531,95.00000000,106.99928282
532,94.00000000,106.99928282
533,94.00000000,106.99928282
534,94.00000000,106.99928282
535,94.00000000,106.99928282
536,94.00000000,107.99951170
537,94.00000000,108.99974059
538,94.00000000,108.99974059
539,94.00000000,108.99974059
540,94.00000000,108.99974059
541,94.00000000,108.99974059
542,95.00000000,108.99974059
543,95.00000000,108.99974059
544,95.00000000,108.99974059
545,95.00000000,108.99974059
546,95.00000000,108.99974059
547,95.00000000,109.99996948
548,95.00000000,109.99996948
549,95.00000000,110.99929807
550,95.00000000,110.99929807
551,95.00000000,111.99952696
552,95.00000000,111.99952696
553,95.00000000,111.99952696
554,95.00000000,111.99952696
555,95.00000000,111.99952696
556,95.00000000,111.99952696
557,95.00000000,111.99952696
558,95.00000000,112.99975585
559,95.00000000,112.99975585
560,95.00000000,112.99975585
561,95.00000000,112.99975585
562,95.00000000,112.99975585
563,94.00000000,112.99975585
564,94.00000000,113.99998474
565,94.00000000,114.99931333
566,94.00000000,114.99931333
567,94.00000000,114.99931333
568,94.00000000,119.99955748
569,94.00000000,119.99955748
570,94.00000000,119.99955748
571,94.00000000,119.99955748
572,94.00000000,120.99978637
573,94.00000000,121.99911496
574,94.00000000,121.99911496
575,94.00000000,121.99911496
576,94.00000000,121.99911496
577,94.00000000,121.99911496
578,94.00000000,122.99934385
579,95.00000000,123.99957274
580,95.00000000,123.99957274
581,95.00000000,123.99957274
582,96.00000000,124.99980163
583,96.00000000,124.99980163
584,96.00000000,124.99980163
585,96.00000000,124.99980163
586,96.00000000,124.99980163
587,96.00000000,124.99980163
588,96.00000000,124.99980163
589,96.00000000,124.99980163
590,95.00000000,124.99980163
591,95.00000000,124.99980163
592,95.00000000,124.99980163
593,95.00000000,124.99980163
594,95.00000000,124.99980163
595,95.00000000,124.99980163
596,95.00000000,124.99980163
597,95.00000000,124.99980163
598,95.00000000,124.99980163
599,95.00000000,124.99980163
600,95.00000000,124.99980163
601,95.00000000,124.99980163
602,95.00000000,124.99980163
603,96.00000000,123.99957274
604,96.00000000,122.99934385
605,96.00000000,121.99911496
606,96.00000000,121.99911496
607,96.00000000,120.99978637
608,96.00000000,120.99978637
609,96.00000000,121.99911496
610,96.00000000,121.99911496
611,96.00000000,121.99911496
612,96.00000000,120.99978637
613,96.00000000,120.99978637
614,96.00000000,120.99978637
615,96.00000000,120.99978637
616,96.00000000,120.99978637
617,96.00000000,120.99978637
618,96.00000000,120.99978637
619,96.00000000,120.99978637
620,96.00000000,120.99978637
621,96.00000000,120.99978637
622,96.00000000,121.99911496
623,96.00000000,121.99911496
624,96.00000000,121.99911496
625,97.00000000,122.99934385
626,97.00000000,122.99934385
627,97.00000000,123.99957274
628,97.00000000,106.99928282
629,97.00000000,106.99928282
630,97.00000000,106.99928282
631,97.00000000,106.99928282
632,97.00000000,103.99949644
633,97.00000000,98.99925230
634,97.00000000,95.00013733
635,97.00000000,90.00079348
636,97.00000000,88.00033570
637,97.00000000,86.00077822
638,97.00000000,87.00010681
639,98.00000000,88.00033570
640,98.00000000,88.00033570
641,98.00000000,87.00010681
642,98.00000000,85.00054933
643,98.00000000,84.00032044
644,98.00000000,83.00009156
645,98.00000000,82.00076296
646,97.00000000,82.00076296
647,97.00000000,81.00053407
648,97.00000000,81.00053407
649,97.00000000,81.00053407
650,98.00000000,80.00030519
651,97.00000000,80.00030519
652,97.00000000,80.00030519
653,97.00000000,80.00030519
654,98.00000000,79.00007630
655,97.00000000,79.00007630
656,98.00000000,79.00007630
657,98.00000000,79.00007630
658,98.00000000,79.00007630
659,98.00000000,80.00030519
660,98.00000000,80.00030519
661,98.00000000,81.00053407
662,97.00000000,82.00076296
663,97.00000000,83.00009156
664,97.00000000,86.00077822
665,97.00000000,87.00010681
666,97.00000000,90.00079348
667,97.00000000,91.00012207
668,97.00000000,91.00012207
669,97.00000000,91.00012207
670,97.00000000,90.00079348
671,97.00000000,89.00056459
672,97.00000000,88.00033570
673,96.00000000,84.00032044
674,96.00000000,83.00009156
675,96.00000000,81.00053407
676,96.00000000,80.00030519
677,96.00000000,78.00074770
678,96.00000000,75.00006104
679,96.00000000,75.00006104
680,96.00000000,74.00073244
681,96.00000000,74.00073244
682,97.00000000,73.00050356
683,97.00000000,74.00073244
684,97.00000000,74.00073244
685,97.00000000,75.00006104
686,97.00000000,75.00006104
687,97.00000000,76.00028993
688,97.00000000,77.00051881
689,97.00000000,78.00074770
690,97.00000000,78.00074770
691,97.00000000,79.00007630
692,97.00000000,80.00030519
693,97.00000000,79.00007630
694,97.00000000,79.00007630
695,97.00000000,79.00007630
696,97.00000000,79.00007630
697,97.00000000,79.00007630
698,97.00000000,79.00007630
699,97.00000000,79.00007630
700,97.00000000,80.00030519
701,97.00000000,79.00007630
702,97.00000000,79.00007630
703,97.00000000,79.00007630
704,97.00000000,78.00074770
705,97.00000000,79.00007630
706,97.00000000,79.00007630
707,97.00000000,79.00007630
708,97.00000000,79.00007630
709,97.00000000,79.00007630
710,97.00000000,80.00030519
711,97.00000000,80.00030519
