'sample interval','SpO2','hr'
'1 sec','%','bpm'
0,94.00006104,94.00051881
1,95.00000000,94.00051881
2,95.00000000,95.00030519
3,95.00000000,97.00056459
4,95.00000000,97.00056459
5,95.00000000,98.00035096
6,95.00000000,94.00051881
7,95.00000000,89.00021363
8,95.00000000,87.00064089
9,95.00000000,87.00064089
10,95.00000000,87.00064089
11,95.00000000,91.00047304
12,95.00000000,94.00051881
13,95.00000000,94.00051881
14,95.00000000,97.00056459
15,95.00000000,98.00035096
16,95.00000000,98.00035096
17,95.00000000,98.00035096
18,95.00000000,98.00035096
19,95.00000000,95.00030519
20,95.00000000,93.00004578
21,95.00000000,91.00047304
22,95.00000000,91.00047304
23,95.00000000,91.00047304
24,95.00000000,91.00047304
25,95.00000000,89.00021363
26,95.00000000,87.00064089
27,95.00000000,86.00016785
28,95.00000000,86.00016785
29,95.00000000,87.00064089
30,95.00000000,86.00016785
31,95.00000000,86.00016785
32,95.00000000,85.00038148
33,95.00000000,86.00016785
34,95.00000000,87.00064089
35,95.00000000,88.00042726
36,95.00000000,89.00021363
37,95.00000000,89.00021363
38,95.00000000,90.00000000
39,95.00000000,89.00021363
40,95.00000000,89.00021363
41,95.00000000,90.00000000
42,95.00000000,93.00004578
43,95.00000000,96.00009156
44,95.00000000,98.00035096
45,95.00000000,101.00039674
46,95.00000000,102.00018311
47,95.00000000,101.00039674
48,95.00000000,97.00056459
49,95.00000000,96.00009156
50,95.00000000,94.00051881
51,95.00000000,93.00004578
52,95.00000000,93.00004578
53,95.00000000,94.00051881
54,95.00000000,94.00051881
55,95.00000000,95.00030519
56,95.00000000,96.00009156
57,95.00000000,96.00009156
58,95.00000000,96.00009156
59,95.00000000,95.00030519
60,95.00000000,94.00051881
61,95.00000000,93.00004578
62,95.00000000,93.00004578
63,95.00000000,92.00025941
64,95.00000000,91.00047304
65,95.00000000,91.00047304
66,95.00000000,91.00047304
67,95.00000000,91.00047304
68,95.00000000,91.00047304
69,95.00000000,89.00021363
70,95.00000000,89.00021363
71,95.00000000,88.00042726
72,95.00000000,89.00021363
73,95.00000000,88.00042726
74,95.00000000,89.00021363
75,95.00000000,88.00042726
76,95.00000000,91.00047304
77,95.00000000,91.00047304
78,95.00000000,93.00004578
79,95.00000000,92.00025941
80,95.00000000,91.00047304
81,95.00000000,87.00064089
82,95.00000000,86.00016785
83,95.00000000,86.00016785
84,95.00000000,86.00016785
85,95.00000000,87.00064089
86,95.00000000,87.00064089
87,95.00000000,88.00042726
88,95.00000000,88.00042726
89,95.00000000,89.00021363
90,95.00000000,88.00042726
91,95.00000000,87.00064089
92,95.00000000,87.00064089
93,95.00000000,88.00042726
94,95.00000000,88.00042726
95,95.00000000,87.00064089
96,95.00000000,87.00064089
97,95.00000000,87.00064089
98,95.00000000,88.00042726
99,95.00000000,88.00042726
100,95.00000000,88.00042726
101,95.00000000,87.00064089
102,95.00000000,87.00064089
103,95.00000000,86.00016785
104,95.00000000,86.00016785
105,95.00000000,86.00016785
106,95.00000000,87.00064089
107,95.00000000,89.00021363
108,95.00000000,90.00000000
109,95.00000000,91.00047304
110,95.00000000,90.00000000
111,95.00000000,89.00021363
112,95.00000000,89.00021363
113,95.00000000,91.00047304
114,95.00000000,91.00047304
115,95.00000000,91.00047304
116,95.00000000,92.00025941
117,95.00000000,91.00047304
118,95.00000000,90.00000000
119,95.00000000,88.00042726
120,95.00000000,87.00064089
121,95.00000000,86.00016785
122,95.00000000,86.00016785
123,95.00000000,86.00016785
124,95.00000000,88.00042726
125,95.00000000,88.00042726
126,95.00000000,88.00042726
127,95.00000000,89.00021363
128,95.00000000,88.00042726
129,95.00000000,88.00042726
130,95.00000000,88.00042726
131,95.00000000,87.00064089
132,95.00000000,87.00064089
133,95.00000000,87.00064089
134,95.00000000,87.00064089
135,95.00000000,87.00064089
136,95.00000000,88.00042726
137,95.00000000,88.00042726
138,95.00000000,88.00042726
139,95.00000000,87.00064089
140,95.00000000,86.00016785
141,95.00000000,86.00016785
142,95.00000000,85.00038148
143,95.00000000,85.00038148
144,95.00000000,85.00038148
145,95.00000000,86.00016785
146,95.00000000,86.00016785
147,95.00000000,87.00064089
148,95.00000000,89.00021363
149,95.00000000,89.00021363
150,95.00000000,90.00000000
151,95.00000000,89.00021363
152,95.00000000,88.00042726
153,95.00000000,88.00042726
154,95.00000000,87.00064089
155,95.00000000,87.00064089
156,94.00006104,90.00000000
157,94.00006104,90.00000000
158,94.00006104,90.00000000
159,94.00006104,91.00047304
160,94.00006104,91.00047304
161,95.00000000,90.00000000
162,95.00000000,91.00047304
163,95.00000000,91.00047304
164,95.00000000,90.00000000
165,95.00000000,90.00000000
166,95.00000000,90.00000000
167,95.00000000,90.00000000
168,95.00000000,90.00000000
169,95.00000000,90.00000000
170,95.00000000,91.00047304
171,95.00000000,91.00047304
172,95.00000000,91.00047304
173,95.00000000,92.00025941
174,95.00000000,92.00025941
175,95.00000000,92.00025941
176,95.00000000,92.00025941
177,95.00000000,94.00051881
178,95.00000000,94.00051881
179,95.00000000,94.00051881
180,95.00000000,94.00051881
181,95.00000000,94.00051881
182,95.00000000,94.00051881
183,95.00000000,93.00004578
184,95.00000000,93.00004578
185,95.00000000,92.00025941
186,95.00000000,92.00025941
187,95.00000000,92.00025941
188,95.00000000,93.00004578
189,95.00000000,93.00004578
190,95.00000000,93.00004578
191,95.00000000,92.00025941
192,95.00000000,92.00025941
193,95.00000000,92.00025941
194,95.00000000,92.00025941
195,95.00000000,92.00025941
196,95.00000000,92.00025941
197,95.00000000,92.00025941
198,95.00000000,93.00004578
199,95.00000000,93.00004578
200,95.00000000,93.00004578
201,95.00000000,94.00051881
202,95.00000000,94.00051881
203,95.00000000,94.00051881
204,95.00000000,93.00004578
205,95.00000000,93.00004578
206,95.00000000,92.00025941
207,95.00000000,92.00025941
208,95.00000000,92.00025941
209,95.00000000,93.00004578
210,95.00000000,93.00004578
211,95.00000000,93.00004578
212,95.00000000,94.00051881
213,95.00000000,95.00030519
214,95.00000000,95.00030519
215,95.00000000,95.00030519
216,95.00000000,93.00004578
217,95.00000000,93.00004578
218,95.00000000,92.00025941
219,95.00000000,92.00025941
220,95.00000000,92.00025941
221,95.00000000,92.00025941
222,95.00000000,92.00025941
223,95.00000000,93.00004578
224,95.00000000,93.00004578
225,95.00000000,94.00051881
226,95.00000000,95.00030519
227,95.00000000,94.00051881
228,95.00000000,93.00004578
229,95.00000000,93.00004578
230,95.00000000,92.00025941
231,95.00000000,92.00025941
232,95.00000000,93.00004578
233,95.00000000,94.00051881
234,95.00000000,94.00051881
235,95.00000000,95.00030519
236,95.00000000,96.00009156
237,95.00000000,97.00056459
238,95.00000000,97.00056459
239,95.00000000,96.00009156
240,95.00000000,96.00009156
241,95.00000000,94.00051881
242,95.00000000,94.00051881
243,95.00000000,94.00051881
244,95.00000000,94.00051881
245,95.00000000,94.00051881
246,95.00000000,95.00030519
247,95.00000000,95.00030519
248,95.00000000,95.00030519
249,95.00000000,94.00051881
250,95.00000000,94.00051881
251,95.00000000,93.00004578
252,95.00000000,93.00004578
253,95.00000000,93.00004578
254,95.00000000,93.00004578
255,95.00000000,92.00025941
256,95.00000000,92.00025941
257,95.00000000,93.00004578
258,95.00000000,94.00051881
259,95.00000000,94.00051881
260,95.00000000,95.00030519
261,95.00000000,96.00009156
262,95.00000000,96.00009156
263,95.00000000,94.00051881
264,95.00000000,91.00047304
265,95.00000000,90.00000000
266,95.00000000,88.00042726
267,95.00000000,87.00064089
268,95.00000000,89.00021363
269,95.00000000,91.00047304
270,95.00000000,93.00004578
271,95.00000000,93.00004578
272,95.00000000,92.00025941
273,95.00000000,90.00000000
274,95.00000000,88.00042726
275,95.00000000,88.00042726
276,95.00000000,88.00042726
277,96.00001526,90.00000000
278,95.00000000,92.00025941
279,95.00000000,92.00025941
280,95.00000000,93.00004578
281,95.00000000,92.00025941
282,95.00000000,89.00021363
283,95.00000000,88.00042726
284,95.00000000,86.00016785
285,95.00000000,84.00059511
286,95.00000000,84.00059511
287,95.00000000,86.00016785
288,95.00000000,87.00064089
289,95.00000000,89.00021363
290,95.00000000,92.00025941
291,95.00000000,92.00025941
292,95.00000000,93.00004578
293,95.00000000,93.00004578
294,95.00000000,92.00025941
295,95.00000000,92.00025941
296,95.00000000,91.00047304
297,95.00000000,91.00047304
298,95.00000000,90.00000000
299,95.00000000,90.00000000
300,95.00000000,90.00000000
301,96.00001526,100.00061037
302,96.00001526,100.00061037
303,96.99995422,100.00061037
304,96.99995422,100.00061037
305,96.99995422,100.00061037
306,96.99995422,100.00061037
307,96.99995422,100.00061037
308,96.99995422,104.00044252
309,96.99995422,104.00044252
310,96.99995422,104.00044252
311,96.99995422,105.99932859
312,96.99995422,106.99980163
313,96.99995422,106.99980163
314,96.99995422,106.99980163
315,96.99995422,106.99980163
316,96.99995422,106.99980163
317,96.99995422,108.99937437
318,96.99995422,110.99963378
319,96.99995422,111.99942015
320,96.99995422,111.99942015
321,96.99995422,109.99984741
322,97.99996948,107.99958800
323,97.99996948,105.99932859
324,97.99996948,105.99932859
325,97.99996948,105.99932859
326,96.99995422,108.99937437
327,97.99996948,108.99937437
328,97.99996948,110.99963378
329,96.99995422,109.99984741
330,96.99995422,110.99963378
331,96.99995422,111.99942015
332,96.99995422,111.99942015
333,96.99995422,110.99963378
334,96.99995422,108.99937437
335,96.99995422,108.99937437
336,96.00001526,107.99958800
337,96.00001526,107.99958800
338,96.00001526,109.99984741
339,96.00001526,110.99963378
340,95.00000000,111.99942015
341,95.00000000,113.99967956
342,95.00000000,113.99967956
343,95.00000000,114.99946593
344,95.00000000,113.99967956
345,95.00000000,112.99989319
346,95.00000000,112.99989319
347,95.00000000,112.99989319
348,95.00000000,112.99989319
349,95.00000000,112.99989319
350,95.00000000,113.99967956
351,95.00000000,115.99993896
352,95.00000000,115.99993896
353,95.00000000,117.99951170
354,95.00000000,119.99977111
355,95.00000000,119.99977111
356,95.00000000,117.99951170
357,95.00000000,114.99946593
358,95.00000000,112.99989319
359,95.00000000,109.99984741
360,95.00000000,108.99937437
361,95.00000000,108.99937437
362,95.00000000,108.99937437
363,95.00000000,108.99937437
364,95.00000000,108.99937437
365,95.00000000,109.99984741
366,95.00000000,109.99984741
367,95.00000000,111.99942015
368,95.00000000,111.99942015
369,95.00000000,112.99989319
370,95.00000000,112.99989319
371,95.00000000,112.99989319
372,95.00000000,112.99989319
373,95.00000000,112.99989319
374,95.00000000,112.99989319
375,95.00000000,112.99989319
376,95.00000000,112.99989319
377,95.00000000,111.99942015
378,95.00000000,109.99984741
379,96.00001526,109.99984741
380,96.00001526,109.99984741
381,96.00001526,109.99984741
382,96.00001526,109.99984741
383,96.00001526,109.99984741
384,96.00001526,109.99984741
385,96.00001526,109.99984741
386,96.00001526,109.99984741
387,96.00001526,107.99958800
388,96.00001526,107.99958800
389,96.00001526,106.99980163
390,95.00000000,104.00044252
391,95.00000000,103.00065615
392,95.00000000,101.00039674
393,95.00000000,101.00039674
394,95.00000000,101.00039674
395,95.00000000,101.00039674
396,95.00000000,101.00039674
397,95.00000000,100.00061037
398,95.00000000,100.00061037
399,95.00000000,98.00035096
400,95.00000000,98.00035096
401,95.00000000,98.00035096
402,95.00000000,99.00013733
403,95.00000000,99.00013733
404,95.00000000,99.00013733
405,95.00000000,98.00035096
406,95.00000000,98.00035096
407,95.00000000,98.00035096
408,95.00000000,98.00035096
409,95.00000000,98.00035096
410,95.00000000,98.00035096
411,95.00000000,98.00035096
412,95.00000000,99.00013733
413,95.00000000,99.00013733
414,95.00000000,99.00013733
415,95.00000000,99.00013733
416,95.00000000,99.00013733
417,95.00000000,100.00061037
418,95.00000000,100.00061037
419,95.00000000,100.00061037
420,95.00000000,100.00061037
421,95.00000000,100.00061037
422,95.00000000,100.00061037
423,95.00000000,100.00061037
424,95.00000000,102.00018311
425,95.00000000,103.00065615
426,95.00000000,103.00065615
427,95.00000000,104.99954222
428,95.00000000,104.99954222
429,95.00000000,104.99954222
430,95.00000000,104.00044252
431,95.00000000,103.00065615
432,95.00000000,99.00013733
433,95.00000000,99.00013733
434,95.00000000,99.00013733
435,95.00000000,100.00061037
436,95.00000000,102.00018311
437,95.00000000,104.00044252
438,95.00000000,102.00018311
439,95.00000000,100.00061037
440,95.00000000,107.99958800
441,95.00000000,107.99958800
442,95.00000000,107.99958800
443,95.00000000,107.99958800
444,95.00000000,107.99958800
445,95.00000000,107.99958800
446,95.00000000,107.99958800
447,95.00000000,108.99937437
448,95.00000000,110.99963378
449,95.00000000,110.99963378
450,95.00000000,110.99963378
451,95.00000000,110.99963378
452,95.00000000,110.99963378
453,95.00000000,110.99963378
454,95.00000000,111.99942015
455,95.00000000,111.99942015
456,95.00000000,113.99967956
457,95.00000000,113.99967956
458,95.00000000,114.99946593
459,95.00000000,114.99946593
460,95.00000000,114.99946593
461,95.00000000,114.99946593
462,95.00000000,114.99946593
463,95.00000000,114.99946593
464,95.00000000,114.99946593
465,95.00000000,117.99951170
466,95.00000000,119.99977111
467,95.00000000,122.99981689
468,95.00000000,126.99964904
469,95.00000000,126.99964904
470,95.00000000,126.99964904
471,95.00000000,126.99964904
472,95.00000000,126.99964904
473,95.00000000,125.99986267
474,95.00000000,118.99998474
475,95.00000000,114.99946593
476,95.00000000,114.99946593
477,95.00000000,114.99946593
478,95.00000000,114.99946593
479,95.00000000,115.99993896
480,95.00000000,115.99993896
481,95.00000000,115.99993896
482,95.00000000,115.99993896
483,95.00000000,118.99998474
484,95.00000000,119.99977111
485,95.00000000,119.99977111
486,95.00000000,119.99977111
487,95.00000000,119.99977111
488,95.00000000,119.99977111
489,95.00000000,119.99977111
490,95.00000000,119.99977111
491,94.00006104,118.99998474
492,94.00006104,115.99993896
493,94.00006104,115.99993896
494,94.00006104,115.99993896
495,94.00006104,115.99993896
496,94.00006104,112.99989319
497,94.00006104,110.99963378
498,94.00006104,110.99963378
499,94.00006104,110.99963378
500,94.00006104,110.99963378
501,94.00006104,110.99963378
502,94.00006104,110.99963378
503,94.00006104,110.99963378
504,94.00006104,110.99963378
505,94.00006104,109.99984741
506,94.00006104,109.99984741
507,94.00006104,109.99984741
508,94.00006104,109.99984741
509,94.00006104,109.99984741
510,94.00006104,109.99984741
511,94.00006104,109.99984741
512,94.00006104,109.99984741
513,94.00006104,109.99984741
514,94.00006104,109.99984741
515,94.00006104,110.99963378
516,94.00006104,110.99963378
517,94.00006104,107.99958800
518,94.00006104,107.99958800
519,94.00006104,107.99958800
520,94.00006104,107.99958800
521,94.00006104,107.99958800
522,94.00006104,107.99958800
523,94.00006104,108.99937437
524,94.00006104,108.99937437
525,94.00006104,108.99937437
526,94.00006104,108.99937437
527,94.00006104,108.99937437
528,94.00006104,109.99984741
529,94.00006104,109.99984741
530,94.00006104,109.99984741
531,94.00006104,109.99984741
532,94.00006104,109.99984741
533,94.00006104,109.99984741
534,94.00006104,110.99963378
535,94.00006104,110.99963378
536,94.00006104,110.99963378
537,94.00006104,111.99942015
538,94.00006104,111.99942015
539,94.00006104,111.99942015
540,94.00006104,111.99942015
541,94.00006104,111.99942015
542,94.00006104,111.99942015
543,94.00006104,111.99942015
544,94.00006104,111.99942015
545,94.00006104,111.99942015
546,94.00006104,111.99942015
547,94.00006104,112.99989319
548,94.00006104,112.99989319
549,94.00006104,110.99963378
550,94.00006104,110.99963378
551,94.00006104,109.99984741
552,94.00006104,106.99980163
553,94.00006104,106.99980163
554,94.00006104,106.99980163
555,94.00006104,104.99954222
556,94.00006104,104.00044252
557,95.00000000,104.00044252
558,95.00000000,104.00044252
559,95.00000000,104.99954222
560,95.00000000,104.00044252
561,95.00000000,104.00044252
562,95.00000000,104.00044252
563,95.00000000,104.00044252
564,95.00000000,104.00044252
565,95.00000000,104.00044252
566,95.00000000,104.00044252
567,95.00000000,104.00044252
568,95.00000000,103.00065615
569,95.00000000,103.00065615
570,95.00000000,100.00061037
571,95.00000000,100.00061037
572,95.00000000,105.99932859
573,95.00000000,105.99932859
574,95.00000000,105.99932859
575,95.00000000,105.99932859
576,95.00000000,105.99932859
577,94.00006104,107.99958800
578,94.00006104,107.99958800
579,94.00006104,110.99963378
580,94.00006104,109.99984741
581,94.00006104,109.99984741
582,94.00006104,109.99984741
583,94.00006104,109.99984741
584,94.00006104,109.99984741
585,94.00006104,109.99984741
586,94.00006104,109.99984741
587,94.00006104,110.99963378
588,94.00006104,110.99963378
589,94.00006104,110.99963378
590,94.00006104,110.99963378
591,94.00006104,110.99963378
592,94.00006104,110.99963378
593,94.00006104,110.99963378
594,94.00006104,110.99963378
595,94.00006104,110.99963378
596,94.00006104,110.99963378
597,94.00006104,110.99963378
598,94.00006104,110.99963378
599,94.00006104,109.99984741
600,94.00006104,109.99984741
601,94.00006104,109.99984741
602,94.00006104,109.99984741
603,94.00006104,109.99984741
604,94.00006104,109.99984741
605,94.00006104,109.99984741
606,94.00006104,109.99984741
607,94.00006104,109.99984741
608,94.00006104,109.99984741
609,94.00006104,109.99984741
610,94.00006104,110.99963378
611,94.00006104,110.99963378
612,94.00006104,110.99963378
613,94.00006104,111.99942015
614,94.00006104,111.99942015
615,94.00006104,112.99989319
616,94.00006104,112.99989319
617,94.00006104,112.99989319
618,94.00006104,112.99989319
619,94.00006104,112.99989319
620,94.00006104,112.99989319
621,94.00006104,114.99946593
622,94.00006104,115.99993896
623,94.00006104,116.99972533
624,94.00006104,115.99993896
625,94.00006104,115.99993896
626,94.00006104,115.99993896
627,94.00006104,114.99946593
628,94.00006104,114.99946593
629,94.00006104,111.99942015
630,95.00000000,111.99942015
631,95.00000000,112.99989319
632,95.00000000,113.99967956
633,95.00000000,112.99989319
634,95.00000000,110.99963378
635,95.00000000,105.99932859
636,95.00000000,103.00065615
637,94.00006104,101.00039674
638,94.00006104,99.00013733
639,94.00006104,96.00009156
640,94.00006104,94.00051881
641,95.00000000,92.00025941
642,95.00000000,92.00025941
643,95.00000000,90.00000000
644,95.00000000,89.00021363
645,95.00000000,88.00042726
646,95.00000000,89.00021363
647,95.00000000,89.00021363
648,95.00000000,91.00047304
649,95.00000000,91.00047304
650,96.00001526,91.00047304
651,96.00001526,92.00025941
652,95.00000000,93.00004578
653,95.00000000,93.00004578
654,95.00000000,94.00051881
655,95.00000000,94.00051881
656,95.00000000,94.00051881
657,95.00000000,95.00030519
658,95.00000000,95.00030519
659,95.00000000,95.00030519
660,95.00000000,95.00030519
661,95.00000000,95.00030519
662,95.00000000,96.00009156
663,95.00000000,96.00009156
664,95.00000000,95.00030519
665,95.00000000,96.00009156
666,95.00000000,95.00030519
667,95.00000000,95.00030519
668,95.00000000,95.00030519
669,95.00000000,95.00030519
670,95.00000000,95.00030519
671,95.00000000,96.00009156
672,95.00000000,96.00009156
673,95.00000000,95.00030519
674,95.00000000,96.00009156
675,95.00000000,95.00030519
676,95.00000000,95.00030519
677,95.00000000,96.00009156
678,95.00000000,97.00056459
679,95.00000000,98.00035096
680,95.00000000,97.00056459
681,95.00000000,96.00009156
682,95.00000000,95.00030519
683,95.00000000,94.00051881
684,95.00000000,94.00051881
685,95.00000000,94.00051881
686,95.00000000,95.00030519
687,95.00000000,96.00009156
688,95.00000000,95.00030519
689,95.00000000,95.00030519
690,95.00000000,95.00030519
691,95.00000000,94.00051881
692,95.00000000,94.00051881
693,95.00000000,94.00051881
694,95.00000000,95.00030519
695,95.00000000,96.00009156
696,95.00000000,96.00009156
697,95.00000000,95.00030519
698,95.00000000,94.00051881
699,95.00000000,94.00051881
700,95.00000000,92.00025941
701,95.00000000,91.00047304
702,95.00000000,92.00025941
703,95.00000000,92.00025941
704,95.00000000,94.00051881
