'sample interval','SpO2','hr'
'1 sec','%','bpm'
0,96.99996948,89.00076296
1,96.99996948,88.00013733
2,96.99996948,87.00044252
3,96.99996948,87.00044252
4,96.99996948,87.00044252
5,96.00000000,87.00044252
6,96.00000000,86.00074770
7,96.00000000,85.00012207
8,96.00000000,85.00012207
9,96.00000000,82.00010681
10,96.00000000,82.00010681
11,96.00000000,81.00041200
12,96.00000000,81.00041200
13,96.00000000,81.00041200
14,96.00000000,82.00010681
15,96.00000000,83.00073244
16,96.99996948,83.00073244
17,96.99996948,83.00073244
18,96.99996948,83.00073244
19,96.99996948,83.00073244
20,96.99996948,82.00010681
21,96.99996948,82.00010681
22,96.99996948,82.00010681
23,96.99996948,82.00010681
24,96.99996948,82.00010681
25,96.99996948,82.00010681
26,96.99996948,81.00041200
27,96.99996948,81.00041200
28,96.00000000,81.00041200
29,96.00000000,81.00041200
30,96.00000000,84.00042726
31,96.99996948,84.00042726
32,96.99996948,85.00012207
33,96.99996948,85.00012207
34,96.99996948,85.00012207
35,96.99996948,84.00042726
36,96.99996948,82.00010681
37,96.99996948,81.00041200
38,96.00000000,80.00071719
39,96.00000000,79.00009156
40,96.00000000,78.00039674
41,95.00003052,77.00070193
42,95.00003052,77.00070193
43,96.00000000,76.00007630
44,96.00000000,75.00038148
45,96.00000000,74.00068667
46,96.00000000,74.00068667
47,96.00000000,73.00006104
48,96.99996948,73.00006104
49,96.99996948,73.00006104
50,96.99996948,72.00036622
51,96.99996948,71.00067141
52,96.99996948,71.00067141
53,96.99996948,70.00004578
54,96.99996948,70.00004578
55,96.00000000,70.00004578
56,96.00000000,70.00004578
57,96.00000000,71.00067141
58,96.00000000,71.00067141
59,96.99996948,71.00067141
60,96.99996948,71.00067141
61,96.99996948,71.00067141
62,96.99996948,72.00036622
63,96.99996948,73.00006104
64,96.99996948,74.00068667
65,96.99996948,74.00068667
66,96.99996948,74.00068667
67,97.99993896,73.00006104
68,97.99993896,71.00067141
69,97.99993896,69.00035096
70,96.99996948,68.00065615
71,96.99996948,67.00003052
72,96.99996948,66.00033570
73,96.99996948,68.00065615
74,96.99996948,68.00065615
75,96.00000000,69.00035096
76,96.00000000,71.00067141
77,96.00000000,72.00036622
78,96.00000000,71.00067141
79,96.00000000,71.00067141
80,96.00000000,70.00004578
81,96.00000000,69.00035096
82,96.00000000,68.00065615
83,96.00000000,67.00003052
84,96.00000000,67.00003052
85,96.00000000,67.00003052
86,96.00000000,67.00003052
87,96.00000000,67.00003052
88,96.00000000,68.00065615
89,96.00000000,68.00065615
90,95.00003052,69.00035096
91,95.00003052,69.00035096
92,95.00003052,69.00035096
93,95.00003052,69.00035096
94,95.00003052,68.00065615
95,95.00003052,68.00065615
96,95.00003052,68.00065615
97,95.00003052,68.00065615
98,95.00003052,68.00065615
99,95.00003052,69.00035096
100,95.00003052,69.00035096
101,95.00003052,69.00035096
102,95.00003052,70.00004578
103,96.00000000,71.00067141
104,96.00000000,70.00004578
105,96.00000000,70.00004578
106,96.00000000,70.00004578
107,96.00000000,70.00004578
108,96.00000000,70.00004578
109,96.00000000,71.00067141
110,96.00000000,73.00006104
111,96.00000000,73.00006104
112,96.00000000,75.00038148
113,96.00000000,77.00070193
114,96.00000000,77.00070193
115,96.00000000,77.00070193
116,96.00000000,77.00070193
117,96.00000000,76.00007630
118,96.00000000,76.00007630
119,96.00000000,76.00007630
120,96.00000000,76.00007630
121,96.00000000,76.00007630
122,96.00000000,76.00007630
123,96.00000000,76.00007630
124,96.00000000,76.00007630
125,96.00000000,75.00038148
126,96.00000000,74.00068667
127,96.00000000,72.00036622
128,96.00000000,71.00067141
129,96.00000000,70.00004578
130,96.00000000,69.00035096
131,96.00000000,69.00035096
132,96.00000000,69.00035096
133,96.00000000,69.00035096
134,96.00000000,69.00035096
135,96.00000000,69.00035096
136,96.00000000,69.00035096
137,96.00000000,69.00035096
138,96.00000000,69.00035096
139,96.00000000,69.00035096
140,96.00000000,69.00035096
141,96.00000000,69.00035096
142,96.00000000,70.00004578
143,96.00000000,70.00004578
144,96.00000000,71.00067141
145,96.00000000,71.00067141
146,96.00000000,71.00067141
147,95.00003052,71.00067141
148,95.00003052,70.00004578
149,95.00003052,70.00004578
150,95.00003052,70.00004578
151,95.00003052,71.00067141
152,95.00003052,71.00067141
153,96.00000000,71.00067141
154,96.00000000,72.00036622
155,96.00000000,72.00036622
156,96.00000000,71.00067141
157,96.00000000,71.00067141
158,96.00000000,70.00004578
159,96.00000000,70.00004578
160,96.00000000,70.00004578
161,96.00000000,69.00035096
162,96.00000000,69.00035096
163,96.00000000,69.00035096
164,96.00000000,68.00065615
165,96.00000000,68.00065615
166,96.00000000,68.00065615
167,96.00000000,68.00065615
168,96.00000000,68.00065615
169,96.00000000,68.00065615
170,96.00000000,69.00035096
171,96.00000000,69.00035096
172,95.00003052,69.00035096
173,95.00003052,69.00035096
174,95.00003052,70.00004578
175,95.00003052,70.00004578
176,95.00003052,70.00004578
177,95.00003052,70.00004578
178,95.00003052,70.00004578
179,95.00003052,70.00004578
180,95.00003052,70.00004578
181,95.00003052,70.00004578
182,95.00003052,70.00004578
183,95.00003052,70.00004578
184,95.00003052,70.00004578
185,95.00003052,71.00067141
186,95.00003052,72.00036622
187,95.00003052,72.00036622
188,95.00003052,72.00036622
189,95.00003052,73.00006104
190,95.00003052,73.00006104
191,95.00003052,73.00006104
192,95.00003052,73.00006104
193,96.00000000,75.00038148
194,96.00000000,77.00070193
195,96.00000000,77.00070193
196,96.00000000,78.00039674
197,96.00000000,78.00039674
198,96.00000000,78.00039674
199,96.00000000,77.00070193
200,96.00000000,77.00070193
201,96.00000000,76.00007630
202,96.00000000,76.00007630
203,96.00000000,75.00038148
204,96.00000000,75.00038148
205,96.00000000,74.00068667
206,96.00000000,74.00068667
207,96.00000000,74.00068667
208,96.00000000,73.00006104
209,96.00000000,73.00006104
210,96.00000000,72.00036622
211,96.00000000,72.00036622
212,96.00000000,72.00036622
213,96.00000000,72.00036622
214,96.00000000,72.00036622
215,96.00000000,72.00036622
216,96.00000000,71.00067141
217,96.00000000,71.00067141
218,96.00000000,71.00067141
219,96.00000000,71.00067141
220,96.00000000,71.00067141
221,96.00000000,71.00067141
222,96.00000000,71.00067141
223,96.00000000,71.00067141
224,96.00000000,71.00067141
225,96.00000000,71.00067141
226,96.00000000,72.00036622
227,96.00000000,72.00036622
228,96.00000000,72.00036622
229,96.00000000,73.00006104
230,96.00000000,73.00006104
231,96.00000000,73.00006104
232,96.00000000,73.00006104
233,96.00000000,73.00006104
234,96.00000000,73.00006104
235,96.00000000,73.00006104
236,96.00000000,73.00006104
237,96.00000000,73.00006104
238,96.00000000,74.00068667
239,96.00000000,74.00068667
240,96.00000000,74.00068667
241,96.00000000,75.00038148
242,96.00000000,77.00070193
243,96.00000000,77.00070193
244,96.00000000,79.00009156
245,96.00000000,80.00071719
246,96.00000000,78.00039674
247,96.00000000,76.00007630
248,96.00000000,76.00007630
249,96.00000000,75.00038148
250,96.00000000,75.00038148
251,96.00000000,75.00038148
252,96.00000000,76.00007630
253,96.00000000,76.00007630
254,96.00000000,76.00007630
255,96.00000000,76.00007630
256,96.00000000,77.00070193
257,96.00000000,77.00070193
258,96.00000000,77.00070193
259,96.00000000,76.00007630
260,96.00000000,76.00007630
261,96.00000000,75.00038148
262,96.00000000,74.00068667
263,96.00000000,74.00068667
264,96.00000000,74.00068667
265,96.00000000,74.00068667
266,96.00000000,74.00068667
267,96.00000000,74.00068667
268,96.00000000,74.00068667
269,96.00000000,74.00068667
270,96.00000000,74.00068667
271,96.00000000,74.00068667
272,96.00000000,73.00006104
273,96.00000000,73.00006104
274,96.00000000,73.00006104
275,96.00000000,73.00006104
276,96.00000000,73.00006104
277,96.00000000,73.00006104
278,96.00000000,73.00006104
279,96.00000000,73.00006104
280,96.00000000,72.00036622
281,96.00000000,71.00067141
282,96.00000000,71.00067141
283,96.00000000,71.00067141
284,96.00000000,71.00067141
285,96.00000000,71.00067141
286,96.00000000,71.00067141
287,96.00000000,72.00036622
288,96.00000000,73.00006104
289,96.00000000,73.00006104
290,96.00000000,73.00006104
291,96.00000000,73.00006104
292,96.00000000,73.00006104
293,96.00000000,73.00006104
294,96.00000000,73.00006104
295,96.00000000,73.00006104
296,96.00000000,73.00006104
297,96.00000000,73.00006104
298,96.00000000,73.00006104
299,96.00000000,72.00036622
300,96.00000000,72.00036622
301,96.00000000,76.00007630
302,95.00003052,74.00068667
303,95.00003052,73.00006104
304,95.00003052,73.00006104
305,95.00003052,72.00036622
306,95.00003052,72.00036622
307,95.00003052,72.00036622
308,95.00003052,73.00006104
309,96.00000000,75.00038148
310,96.00000000,75.00038148
311,96.00000000,77.00070193
312,96.00000000,77.00070193
313,96.00000000,78.00039674
314,96.00000000,78.00039674
315,96.00000000,80.00071719
316,96.00000000,80.00071719
317,96.00000000,80.00071719
318,96.00000000,80.00071719
319,96.00000000,79.00009156
320,96.00000000,79.00009156
321,96.00000000,78.00039674
322,96.00000000,78.00039674
323,96.00000000,79.00009156
324,96.00000000,79.00009156
325,96.00000000,80.00071719
326,96.00000000,79.00009156
327,96.00000000,77.00070193
328,96.00000000,75.00038148
329,96.00000000,74.00068667
330,96.00000000,74.00068667
331,96.00000000,73.00006104
332,96.00000000,73.00006104
333,96.00000000,73.00006104
334,96.00000000,73.00006104
335,96.00000000,73.00006104
336,96.00000000,73.00006104
337,96.00000000,74.00068667
338,96.00000000,74.00068667
339,96.00000000,74.00068667
340,96.00000000,74.00068667
341,96.00000000,75.00038148
342,96.00000000,75.00038148
343,96.00000000,76.00007630
344,96.00000000,78.00039674
345,96.00000000,79.00009156
346,96.00000000,78.00039674
347,96.00000000,77.00070193
348,96.00000000,77.00070193
349,96.00000000,83.00073244
350,96.00000000,86.00074770
351,96.00000000,87.00044252
352,95.00003052,90.00045778
353,95.00003052,92.00077822
354,95.00003052,94.00016785
355,95.00003052,96.00048830
356,95.00003052,98.99957274
357,96.00000000,102.99928282
358,96.00000000,104.99960326
359,96.00000000,104.99960326
360,96.00000000,107.99961852
361,96.99996948,106.99992370
362,96.99996948,103.99990844
363,96.99996948,98.99957274
364,96.99996948,93.00047304
365,96.99996948,91.00015259
366,96.99996948,88.00013733
367,97.99993896,87.00044252
368,97.99993896,85.00012207
369,97.99993896,85.00012207
370,97.99993896,85.00012207
371,97.99993896,87.00044252
372,97.99993896,90.00045778
373,97.99993896,90.00045778
374,97.99993896,93.00047304
375,97.99993896,93.00047304
376,97.99993896,91.00015259
377,97.99993896,90.00045778
378,97.99993896,89.00076296
379,96.99996948,88.00013733
380,96.99996948,87.00044252
381,96.99996948,87.00044252
382,96.99996948,88.00013733
383,96.99996948,88.00013733
384,96.99996948,88.00013733
385,96.99996948,87.00044252
386,96.99996948,87.00044252
387,96.99996948,87.00044252
388,96.99996948,88.00013733
389,96.00000000,88.00013733
390,96.00000000,88.00013733
391,96.00000000,89.00076296
392,96.00000000,89.00076296
393,96.00000000,89.00076296
394,96.00000000,88.00013733
395,96.00000000,87.00044252
396,96.00000000,88.00013733
397,96.99996948,89.00076296
398,96.99996948,91.00015259
399,96.99996948,92.00077822
400,96.99996948,92.00077822
401,96.99996948,91.00015259
402,96.99996948,91.00015259
403,96.99996948,92.00077822
404,96.99996948,92.00077822
405,96.00000000,93.00047304
406,96.00000000,92.00077822
407,96.00000000,91.00015259
408,96.00000000,87.00044252
409,96.00000000,86.00074770
410,96.00000000,85.00012207
411,96.00000000,84.00042726
412,96.00000000,84.00042726
413,96.00000000,84.00042726
414,96.00000000,84.00042726
415,96.00000000,84.00042726
416,96.00000000,84.00042726
417,96.00000000,84.00042726
418,96.00000000,83.00073244
419,96.00000000,83.00073244
420,96.99996948,86.00074770
421,96.99996948,86.00074770
422,96.99996948,84.00042726
423,96.99996948,88.00013733
424,96.99996948,91.00015259
425,96.99996948,94.00016785
426,96.99996948,94.00016785
427,96.99996948,96.99925230
428,96.99996948,98.99957274
429,96.99996948,99.99926756
430,96.99996948,99.99926756
431,96.99996948,99.99926756
432,96.99996948,95.00079348
433,96.99996948,94.00016785
434,96.99996948,92.00077822
435,96.99996948,92.00077822
436,96.00000000,92.00077822
437,96.00000000,92.00077822
438,96.00000000,92.00077822
439,96.00000000,90.00045778
440,96.00000000,90.00045778
441,96.00000000,88.00013733
442,96.99996948,88.00013733
443,96.99996948,83.00073244
444,96.99996948,83.00073244
445,96.99996948,83.00073244
446,96.99996948,84.00042726
447,96.99996948,84.00042726
448,96.00000000,86.00074770
449,96.00000000,86.00074770
450,96.00000000,89.00076296
451,96.00000000,89.00076296
452,95.00003052,90.00045778
453,95.00003052,91.00015259
454,95.00003052,92.00077822
455,95.00003052,92.00077822
456,95.00003052,93.00047304
457,95.00003052,93.00047304
458,95.00003052,93.00047304
459,95.00003052,93.00047304
460,95.00003052,94.00016785
461,95.00003052,94.00016785
462,95.00003052,94.00016785
463,95.00003052,94.00016785
464,95.00003052,95.00079348
465,95.00003052,95.00079348
466,96.00000000,96.99925230
467,96.00000000,96.99925230
468,96.00000000,96.99925230
469,96.00000000,96.99925230
470,96.00000000,96.99925230
471,96.99996948,96.99925230
472,96.99996948,97.99987793
473,96.99996948,98.99957274
474,96.99996948,98.99957274
475,97.99993896,99.99926756
476,97.99993896,100.99989319
477,96.99996948,100.99989319
478,96.99996948,101.99958800
479,96.99996948,103.99990844
480,96.99996948,103.99990844
481,96.99996948,103.99990844
482,96.00000000,103.99990844
483,96.00000000,106.99992370
484,96.00000000,106.99992370
485,96.00000000,108.99931333
486,96.00000000,107.99961852
487,96.00000000,108.99931333
488,96.00000000,108.99931333
489,96.00000000,108.99931333
490,96.00000000,107.99961852
491,96.00000000,107.99961852
492,96.00000000,107.99961852
493,96.00000000,107.99961852
494,96.00000000,107.99961852
495,96.00000000,108.99931333
496,96.00000000,110.99963378
497,96.00000000,110.99963378
498,96.00000000,109.99993896
499,96.00000000,107.99961852
500,96.00000000,106.99992370
501,96.00000000,106.99992370
502,96.00000000,105.99929807
503,96.00000000,104.99960326
504,96.99996948,104.99960326
505,96.99996948,102.99928282
506,96.99996948,102.99928282
507,96.99996948,102.99928282
508,96.99996948,102.99928282
509,97.99993896,103.99990844
510,97.99993896,103.99990844
511,97.99993896,103.99990844
512,97.99993896,103.99990844
513,97.99993896,103.99990844
514,96.99996948,103.99990844
515,96.99996948,104.99960326
516,96.99996948,104.99960326
517,96.99996948,104.99960326
518,96.99996948,104.99960326
519,96.99996948,104.99960326
520,96.99996948,103.99990844
521,96.99996948,102.99928282
522,96.99996948,102.99928282
523,96.99996948,101.99958800
524,96.99996948,101.99958800
525,96.99996948,101.99958800
526,96.99996948,101.99958800
527,96.99996948,101.99958800
528,96.99996948,101.99958800
529,96.99996948,101.99958800
530,96.99996948,101.99958800
531,96.99996948,101.99958800
532,96.99996948,100.99989319
533,96.99996948,100.99989319
534,96.99996948,100.99989319
535,96.99996948,99.99926756
536,96.99996948,99.99926756
537,96.99996948,98.99957274
538,96.99996948,98.99957274
539,96.99996948,99.99926756
540,96.00000000,98.99957274
541,96.00000000,99.99926756
542,96.00000000,98.99957274
543,96.00000000,98.99957274
544,96.00000000,98.99957274
545,96.00000000,99.99926756
546,96.00000000,99.99926756
547,96.00000000,99.99926756
548,96.00000000,99.99926756
549,96.00000000,97.99987793
550,96.00000000,97.99987793
551,96.00000000,95.00079348
552,96.00000000,95.00079348
553,96.00000000,95.00079348
554,96.00000000,95.00079348
555,96.00000000,95.00079348
556,96.00000000,95.00079348
557,96.00000000,95.00079348
558,96.00000000,96.00048830
559,96.00000000,96.00048830
560,96.00000000,96.00048830
561,96.00000000,99.99926756
562,96.00000000,102.99928282
563,96.99996948,104.99960326
564,96.00000000,104.99960326
565,96.00000000,105.99929807
566,96.00000000,105.99929807
567,96.00000000,105.99929807
568,96.00000000,105.99929807
569,96.00000000,105.99929807
570,96.00000000,105.99929807
571,96.00000000,105.99929807
572,96.00000000,104.99960326
573,96.00000000,105.99929807
574,97.99993896,105.99929807
575,97.99993896,107.99961852
576,97.99993896,107.99961852
577,97.99993896,107.99961852
578,97.99993896,107.99961852
579,97.99993896,107.99961852
580,96.99996948,107.99961852
581,96.99996948,107.99961852
582,96.99996948,107.99961852
583,96.99996948,109.99993896
584,96.99996948,110.99963378
585,96.99996948,110.99963378
586,96.99996948,110.99963378
587,96.99996948,110.99963378
588,96.99996948,110.99963378
589,96.99996948,110.99963378
590,96.99996948,110.99963378
591,96.99996948,110.99963378
592,96.99996948,111.99932859
593,96.99996948,111.99932859
594,96.99996948,111.99932859
595,96.99996948,111.99932859
596,96.99996948,111.99932859
597,96.99996948,111.99932859
598,96.99996948,111.99932859
599,96.99996948,112.99995422
600,96.99996948,112.99995422
601,96.99996948,112.99995422
602,96.99996948,113.99964904
603,96.99996948,113.99964904
604,96.99996948,113.99964904
605,96.99996948,113.99964904
606,96.99996948,113.99964904
607,96.99996948,113.99964904
608,96.99996948,113.99964904
609,96.99996948,113.99964904
610,96.99996948,113.99964904
611,96.99996948,113.99964904
612,96.99996948,114.99934385
613,96.99996948,115.99996948
614,96.99996948,115.99996948
615,96.00000000,115.99996948
616,96.00000000,115.99996948
617,96.00000000,116.99966430
618,96.00000000,111.99932859
619,96.00000000,111.99932859
620,96.00000000,110.99963378
621,95.00003052,110.99963378
622,95.00003052,111.99932859
623,95.00003052,111.99932859
624,95.00003052,111.99932859
625,95.00003052,112.99995422
626,95.00003052,112.99995422
627,95.00003052,112.99995422
628,95.00003052,113.99964904
629,95.00003052,113.99964904
630,95.00003052,124.99908445
631,95.00003052,124.99908445
632,95.00003052,124.99908445
633,95.00003052,124.99908445
634,95.00003052,124.99908445
635,95.00003052,123.99938963
636,95.00003052,123.99938963
637,95.00003052,122.00000000
638,95.00003052,114.99934385
639,95.00003052,106.99992370
640,95.00003052,106.99992370
641,95.00003052,106.99992370
642,95.00003052,95.00079348
643,95.00003052,95.00079348
644,95.00003052,95.00079348
645,95.00003052,95.00079348
646,95.00003052,93.00047304
647,95.00003052,94.00016785
648,95.00003052,94.00016785
649,95.00003052,94.00016785
650,95.00003052,94.00016785
651,95.00003052,94.00016785
652,95.00003052,94.00016785
653,95.00003052,94.00016785
654,95.00003052,96.00048830
655,95.00003052,96.99925230
656,95.00003052,96.99925230
657,95.00003052,100.99989319
658,96.00000000,108.99931333
659,96.00000000,112.99995422
660,96.00000000,115.99996948
661,96.00000000,118.99998474
662,95.00003052,122.00000000
663,95.00003052,123.99938963
664,95.00003052,125.99971007
665,96.00000000,126.99940489
666,96.00000000,126.99940489
667,96.00000000,126.99940489
668,96.00000000,126.99940489
669,96.00000000,126.99940489
670,96.00000000,123.99938963
671,96.99996948,117.99935911
672,96.99996948,115.99996948
673,96.99996948,114.99934385
674,96.99996948,111.99932859
675,97.99993896,109.99993896
676,97.99993896,110.99963378
677,96.99996948,110.99963378
678,96.99996948,110.99963378
679,96.99996948,109.99993896
680,96.00000000,108.99931333
681,96.99996948,104.99960326
682,96.99996948,101.99958800
683,96.99996948,97.99987793
684,96.99996948,96.00048830
685,96.99996948,94.00016785
686,96.99996948,93.00047304
687,96.99996948,93.00047304
688,96.99996948,94.00016785
689,96.99996948,94.00016785
690,96.99996948,95.00079348
691,96.00000000,92.00077822
692,96.00000000,91.00015259
693,96.00000000,91.00015259
694,96.00000000,92.00077822
695,96.00000000,93.00047304
696,96.00000000,95.00079348
697,96.00000000,94.00016785
698,96.00000000,92.00077822
699,96.00000000,91.00015259
700,96.00000000,90.00045778
701,96.00000000,90.00045778
702,96.00000000,89.00076296
703,96.00000000,87.00044252
704,96.00000000,87.00044252
705,96.00000000,84.00042726
706,96.00000000,84.00042726
707,96.00000000,84.00042726
708,96.00000000,83.00073244
709,96.00000000,83.00073244
